#
SAMPLE_NAME = PYX110
#
SAMPLE_TYPE = regolith
#
SAMPLE_NATURE = bronzite
#
SAMPLE_DESCRIPTION = locality unknown; En86.3Fs13.2Wo0.5
#
SAMPLE_MINERALOGY = needs to be collected
#
SAMPLE_COMMENT = <45 45-90
#
SPEC_LASER_WL = 531.98
#
SPEC_LASER_PW = 50.0
#
SPEC_LASER_SP = 1.0
#
SPEC_VIEWED_SP = 0.085
#
SPEC_RESOLUTION = 4.0
#
SPEC_XUNIT = shift
#
SPEC_YUNIT = counts
#
SPEC_INTEG_TIME = 10.0
#
SPEC_NB_AVG = 30
#
SPEC_LIN_CORR = Yes
#
SPEC_DARK_COMP = Yes
#
SPEC_DARK_SUBT = Yes
#
SPEC_CONTSUB = No
#
SPEC_SPECTROMETER = BWTek iRaman; BWS415-532S; Cal2
#
SPEC_COMMENT = CCD temperature (degC): 14; Fiber optic cable: "BAC102; 105 micron core for excitation, 200 micron core for collection "; Notch filter: OD6; Microscope Used: No ; Boxcar/zero fill: nil; Basename (C-TAPE) 210212_003_532_PYX110_spot3.txtr.
#
SPEC_SAMPINT_BEG = 2.85
SPEC_SAMPINT_END = 1.45
#
SPEC_AQDATE = 2021-02-12
#
#
DATA
  168.930000   12696.187000
  171.780000   12809.853700
  174.630000   12894.187000
  177.480000   13049.353700
  180.330000   13168.620400
  183.180000   13194.353700
  186.030000   13325.787000
  188.870000   13381.953700
  191.720000   13453.520400
  194.560000   13312.953700
  197.410000   13383.520400
  200.250000   13434.087000
  203.090000   13489.987000
  205.930000   13662.620400
  208.770000   13707.653700
  211.610000   13824.720400
  214.440000   14082.453700
  217.280000   14132.553700
  220.120000   14167.987000
  222.950000   14432.720400
  225.780000   14544.520400
  228.610000   14779.220400
  231.450000   15168.720400
  234.280000   15105.287000
  237.100000   14588.520400
  239.930000   14378.653700
  242.760000   14210.420400
  245.590000   14112.620400
  248.410000   14195.287000
  251.230000   14242.987000
  254.060000   14307.953700
  256.880000   14370.553700
  259.700000   14374.120400
  262.520000   14566.187000
  265.340000   14490.687000
  268.160000   14665.087000
  270.970000   14720.353700
  273.790000   14818.420400
  276.600000   15035.220400
  279.420000   14890.320400
  282.230000   15003.587000
  285.040000   15153.187000
  287.850000   15353.920400
  290.660000   15315.387000
  293.470000   15461.887000
  296.280000   15556.887000
  299.080000   15734.753700
  301.890000   15770.953700
  304.690000   16004.487000
  307.500000   16199.687000
  310.300000   16386.620400
  313.100000   16565.820400
  315.900000   16904.153700
  318.700000   17334.687000
  321.500000   17288.620400
  324.300000   17818.553700
  327.090000   18220.120400
  329.890000   18670.087000
  332.680000   19392.020400
  335.480000   19888.153700
  338.270000   19623.087000
  341.060000   18731.787000
  343.850000   17976.653700
  346.640000   17448.353700
  349.430000   17190.787000
  352.210000   17105.153700
  355.000000   17118.053700
  357.790000   16915.387000
  360.570000   17082.953700
  363.350000   16952.253700
  366.140000   17173.320400
  368.920000   17314.053700
  371.700000   17422.853700
  374.480000   17666.787000
  377.260000   17768.220400
  380.030000   17950.387000
  382.810000   17943.853700
  385.580000   17919.087000
  388.360000   18330.353700
  391.130000   18358.653700
  393.900000   18660.053700
  396.670000   18752.520400
  399.440000   18634.020400
  402.210000   18469.220400
  404.980000   18278.953700
  407.750000   18378.587000
  410.520000   18178.220400
  413.280000   18081.353700
  416.050000   17939.787000
  418.810000   18023.120400
  421.570000   17816.453700
  424.330000   17686.120400
  427.090000   17667.753700
  429.850000   17773.020400
  432.610000   17796.553700
  435.370000   17872.053700
  438.120000   17747.053700
  440.880000   17793.987000
  443.630000   17747.787000
  446.390000   17558.120400
  449.140000   17891.487000
  451.890000   17870.920400
  454.640000   17997.453700
  457.390000   17820.520400
  460.140000   17853.187000
  462.880000   17963.520400
  465.630000   18105.087000
  468.380000   18059.353700
  471.120000   18202.853700
  473.860000   18122.587000
  476.610000   18298.053700
  479.350000   18252.620400
  482.090000   18379.353700
  484.830000   18403.120400
  487.560000   18450.253700
  490.300000   18467.187000
  493.040000   18599.853700
  495.770000   18629.187000
  498.510000   18633.053700
  501.240000   18758.387000
  503.970000   18819.320400
  506.710000   18820.487000
  509.440000   19099.253700
  512.170000   19017.587000
  514.890000   19122.453700
  517.620000   19289.887000
  520.350000   19308.187000
  523.070000   19248.620400
  525.800000   19247.320400
  528.520000   19308.087000
  531.240000   19274.487000
  533.970000   19452.220400
  536.690000   19585.753700
  539.410000   19606.953700
  542.120000   19543.953700
  544.840000   19649.153700
  547.560000   19521.987000
  550.270000   19505.920400
  552.990000   19419.287000
  555.700000   19531.820400
  558.420000   19430.753700
  561.130000   19590.220400
  563.840000   19756.353700
  566.550000   19815.187000
  569.260000   20081.887000
  571.960000   20086.453700
  574.670000   20103.487000
  577.380000   20007.487000
  580.080000   20016.553700
  582.790000   20057.353700
  585.490000   20105.920400
  588.190000   20154.587000
  590.890000   20282.920400
  593.590000   20084.853700
  596.290000   20179.587000
  598.990000   20211.653700
  601.690000   20251.787000
  604.380000   20283.287000
  607.080000   20367.887000
  609.770000   20245.153700
  612.460000   20428.653700
  615.160000   20343.887000
  617.850000   20491.587000
  620.540000   20538.287000
  623.230000   20566.953700
  625.920000   20706.187000
  628.600000   20695.820400
  631.290000   20743.253700
  633.980000   20890.320400
  636.660000   20949.020400
  639.340000   21149.453700
  642.030000   21424.487000
  644.710000   21752.787000
  647.390000   22086.120400
  650.070000   22619.120400
  652.750000   23225.387000
  655.420000   23854.053700
  658.100000   24495.053700
  660.780000   24659.820400
  663.450000   24302.320400
  666.120000   23784.753700
  668.800000   24023.320400
  671.470000   24229.720400
  674.140000   24853.520400
  676.810000   25515.087000
  679.480000   25932.987000
  682.150000   25505.253700
  684.810000   24722.753700
  687.480000   23423.553700
  690.150000   22967.487000
  692.810000   22268.087000
  695.470000   22052.587000
  698.130000   21862.153700
  700.800000   21916.020400
  703.460000   21882.353700
  706.120000   21795.887000
  708.770000   21760.687000
  711.430000   21774.853700
  714.090000   21837.953700
  716.740000   21770.353700
  719.400000   21918.787000
  722.050000   21880.287000
  724.700000   21867.120400
  727.360000   22061.453700
  730.010000   21910.787000
  732.660000   22140.020400
  735.310000   22077.087000
  737.950000   22167.187000
  740.600000   22109.853700
  743.250000   22089.120400
  745.890000   22162.887000
  748.530000   22145.687000
  751.180000   22157.820400
  753.820000   22325.387000
  756.460000   22218.187000
  759.100000   22133.153700
  761.740000   22196.520400
  764.380000   22266.720400
  767.020000   22265.220400
  769.650000   22282.687000
  772.290000   22246.353700
  774.920000   22354.187000
  777.560000   22382.553700
  780.190000   22390.687000
  782.820000   22534.320400
  785.450000   22477.820400
  788.080000   22609.853700
  790.710000   22595.653700
  793.340000   22594.720400
  795.960000   22793.820400
  798.590000   22724.587000
  801.210000   22899.153700
  803.840000   22857.420400
  806.460000   22963.953700
  809.080000   22809.387000
  811.710000   22918.320400
  814.330000   22973.753700
  816.940000   22922.953700
  819.560000   23183.087000
  822.180000   22980.653700
  824.800000   23166.920400
  827.410000   23197.587000
  830.030000   23156.553700
  832.640000   23290.653700
  835.250000   23316.587000
  837.870000   23265.687000
  840.480000   23370.053700
  843.090000   23268.920400
  845.690000   23396.953700
  848.300000   23396.787000
  850.910000   23448.220400
  853.520000   23573.487000
  856.120000   23730.887000
  858.730000   23752.720400
  861.330000   23730.387000
  863.930000   23778.287000
  866.530000   23577.887000
  869.130000   23603.987000
  871.730000   23867.353700
  874.330000   23637.853700
  876.930000   23739.687000
  879.530000   23716.853700
  882.120000   23825.153700
  884.720000   23885.587000
  887.310000   23919.453700
  889.900000   23972.320400
  892.490000   23842.820400
  895.090000   23968.953700
  897.680000   24069.020400
  900.260000   24008.387000
  902.850000   24127.987000
  905.440000   24260.053700
  908.030000   24320.987000
  910.610000   24289.987000
  913.200000   24417.253700
  915.780000   24469.353700
  918.360000   24361.887000
  920.940000   24476.720400
  923.530000   25076.953700
  926.110000   24956.220400
  928.680000   25028.053700
  931.260000   25088.553700
  933.840000   25185.387000
  936.420000   25039.153700
  938.990000   25218.620400
  941.570000   25035.687000
  944.140000   24830.087000
  946.710000   24885.453700
  949.280000   24655.020400
  951.850000   24581.887000
  954.420000   24736.987000
  956.990000   24690.687000
  959.560000   24602.553700
  962.130000   24649.287000
  964.690000   24632.087000
  967.260000   24657.953700
  969.820000   24666.687000
  972.380000   24607.087000
  974.950000   24918.553700
  977.510000   24942.087000
  980.070000   25071.053700
  982.630000   24965.220400
  985.190000   25214.820400
  987.740000   25257.553700
  990.300000   25790.120400
  992.860000   26382.020400
  995.410000   26901.720400
  997.960000   28113.587000
 1000.520000   29362.520400
 1003.070000   30622.053700
 1005.620000   32149.053700
 1008.170000   32687.520400
 1010.720000   31847.487000
 1013.270000   30517.520400
 1015.820000   29517.320400
 1018.360000   29222.787000
 1020.910000   29015.020400
 1023.450000   28652.053700
 1026.000000   28404.853700
 1028.540000   28218.787000
 1031.080000   27432.753700
 1033.620000   27406.887000
 1036.160000   26939.887000
 1038.700000   26322.387000
 1041.240000   26240.687000
 1043.780000   25999.320400
 1046.310000   25659.987000
 1048.850000   25506.520400
 1051.380000   25615.720400
 1053.920000   25373.020400
 1056.450000   25382.487000
 1058.980000   25280.453700
 1061.510000   25387.553700
 1064.040000   25257.853700
 1066.570000   25065.453700
 1069.100000   25188.887000
 1071.630000   25119.253700
 1074.150000   25104.853700
 1076.680000   25302.687000
 1079.200000   25163.487000
 1081.730000   25139.887000
 1084.250000   25198.720400
 1086.770000   25200.020400
 1089.290000   25304.420400
 1091.810000   25310.720400
 1094.330000   25338.320400
 1096.850000   25261.687000
 1099.370000   25361.587000
 1101.880000   25141.720400
 1104.400000   25556.487000
 1106.910000   25280.053700
 1109.430000   25338.387000
 1111.940000   25302.787000
 1114.450000   25259.053700
 1116.960000   25150.953700
 1119.470000   25220.720400
 1121.980000   25327.453700
 1124.490000   25195.353700
 1127.000000   25373.253700
 1129.510000   25246.187000
 1132.010000   25134.687000
 1134.520000   25247.420400
 1137.020000   25296.420400
 1139.520000   25273.587000
 1142.020000   25348.387000
 1144.520000   25203.720400
 1147.020000   25167.853700
 1149.520000   25343.653700
 1152.020000   25283.953700
 1154.520000   25163.587000
 1157.020000   25201.387000
 1159.510000   25152.653700
 1162.010000   25204.187000
 1164.500000   25155.120400
 1166.990000   25199.553700
 1169.480000   25221.787000
 1171.980000   25152.253700
 1174.470000   25261.120400
 1176.960000   25156.987000
 1179.440000   25170.720400
 1181.930000   25101.787000
 1184.420000   25200.720400
 1186.900000   25156.020400
 1189.390000   25301.553700
 1191.870000   25416.053700
 1194.350000   25230.453700
 1196.840000   25195.220400
 1199.320000   25213.920400
 1201.800000   25382.387000
 1204.280000   25277.020400
 1206.760000   25277.120400
 1209.230000   25465.553700
 1211.710000   25412.320400
 1214.190000   25420.420400
 1216.660000   25326.420400
 1219.140000   25492.953700
 1221.610000   25534.153700
 1224.080000   25598.653700
 1226.550000   25578.487000
 1229.020000   25571.487000
 1231.490000   25601.953700
 1233.960000   25589.153700
 1236.430000   25718.720400
 1238.900000   25803.953700
 1241.360000   25691.187000
 1243.830000   25767.953700
 1246.290000   25739.120400
 1248.750000   25731.787000
 1251.220000   25817.153700
 1253.680000   25769.753700
 1256.140000   25698.187000
 1258.600000   25908.553700
 1261.060000   25826.920400
 1263.520000   25770.453700
 1265.970000   25973.287000
 1268.430000   25922.053700
 1270.880000   25840.020400
 1273.340000   25831.587000
 1275.790000   25857.120400
 1278.240000   25799.553700
 1280.700000   25863.387000
 1283.150000   25785.153700
 1285.600000   25881.353700
 1288.050000   25675.720400
 1290.490000   25909.487000
 1292.940000   25845.953700
 1295.390000   25820.920400
 1297.830000   25910.220400
 1300.280000   25811.387000
 1302.720000   25861.053700
 1305.170000   25926.820400
 1307.610000   25765.587000
 1310.050000   25771.453700
 1312.490000   25862.920400
 1314.930000   25702.453700
 1317.370000   25875.687000
 1319.800000   25816.453700
 1322.240000   25773.020400
 1324.680000   25790.020400
 1327.110000   25944.620400
 1329.550000   25771.053700
 1331.980000   25905.220400
 1334.410000   25843.887000
 1336.840000   25884.887000
 1339.270000   25839.620400
 1341.700000   25803.853700
 1344.130000   25583.553700
 1346.560000   25915.020400
 1348.990000   25840.187000
 1351.410000   25867.587000
 1353.840000   25808.653700
 1356.260000   25853.187000
 1358.690000   25770.587000
 1361.110000   25820.887000
 1363.530000   25856.187000
 1365.950000   25796.020400
 1368.370000   25774.520400
 1370.790000   25852.120400
 1373.210000   25896.020400
 1375.630000   25766.820400
 1378.040000   25942.253700
 1380.460000   25681.187000
 1382.880000   25639.853700
 1385.290000   25808.253700
 1387.700000   25864.153700
 1390.110000   25706.153700
 1392.530000   25733.287000
 1394.940000   25828.087000
 1397.350000   25699.753700
 1399.750000   25808.287000
 1402.160000   25817.687000
 1404.570000   25870.787000
 1406.980000   25937.987000
 1409.380000   26037.253700
 1411.790000   25948.287000
 1414.190000   26008.920400
 1416.590000   25965.087000
 1418.990000   25890.053700
 1421.390000   26082.887000
 1423.790000   26050.687000
 1426.190000   26094.453700
 1428.590000   26017.853700
 1430.990000   26215.453700
 1433.390000   26176.053700
 1435.780000   26178.753700
 1438.180000   26065.920400
 1440.570000   26259.720400
 1442.960000   26337.220400
 1445.360000   26303.287000
 1447.750000   26272.153700
 1450.140000   26193.720400
 1452.530000   26295.753700
 1454.920000   26274.887000
 1457.300000   26337.153700
 1459.690000   26365.320400
 1462.080000   26371.753700
 1464.460000   26336.653700
 1466.850000   26349.920400
 1469.230000   26292.153700
 1471.610000   26418.453700
 1474.000000   26374.320400
 1476.380000   26302.853700
 1478.760000   26411.587000
 1481.140000   26388.853700
 1483.520000   26307.420400
 1485.890000   26290.720400
 1488.270000   26373.153700
 1490.650000   26338.420400
 1493.020000   26431.920400
 1495.400000   26145.820400
 1497.770000   26327.887000
 1500.140000   26240.220400
 1502.510000   26381.020400
 1504.880000   26287.053700
 1507.250000   26264.387000
 1509.620000   26345.053700
 1511.990000   26210.087000
 1514.360000   26270.687000
 1516.720000   26272.887000
 1519.090000   26412.420400
 1521.450000   26421.353700
 1523.820000   26292.953700
 1526.180000   26205.520400
 1528.540000   26234.353700
 1530.910000   26340.387000
 1533.270000   26412.687000
 1535.630000   26366.120400
 1537.980000   26336.153700
 1540.340000   26260.487000
 1542.700000   26336.720400
 1545.060000   26358.653700
 1547.410000   26313.587000
 1549.770000   26358.620400
 1552.120000   26372.587000
 1554.470000   26451.220400
 1556.820000   26221.153700
 1559.180000   26417.187000
 1561.530000   26422.487000
 1563.870000   26343.720400
 1566.220000   26329.353700
 1568.570000   26419.887000
 1570.920000   26491.953700
 1573.260000   26415.820400
 1575.610000   26458.553700
 1577.950000   26299.887000
 1580.300000   26518.020400
 1582.640000   26416.987000
 1584.980000   26370.187000
 1587.320000   26273.820400
 1589.660000   26471.987000
 1592.000000   26524.187000
 1594.340000   26598.720400
 1596.680000   26520.987000
 1599.010000   26455.820400
 1601.350000   26538.853700
 1603.690000   26474.020400
 1606.020000   26589.387000
 1608.350000   26584.587000
 1610.690000   26740.920400
 1613.020000   26517.987000
 1615.350000   26442.587000
 1617.680000   26532.320400
 1620.010000   26600.553700
 1622.340000   26422.387000
 1624.660000   26469.487000
 1626.990000   26500.287000
 1629.320000   26661.887000
 1631.640000   26741.787000
 1633.960000   26438.853700
 1636.290000   26629.320400
 1638.610000   26556.020400
 1640.930000   26663.453700
 1643.250000   26661.553700
 1645.570000   26659.353700
 1647.890000   26785.920400
 1650.210000   26763.753700
 1652.530000   26728.953700
 1654.840000   26540.053700
 1657.160000   27189.053700
 1659.470000   26665.453700
 1661.790000   26780.653700
 1664.100000   26728.053700
 1666.410000   26744.453700
 1668.720000   26732.653700
 1671.040000   26696.353700
 1673.350000   26663.720400
 1675.650000   26783.287000
 1677.960000   26741.653700
 1680.270000   26695.753700
 1682.580000   26743.420400
 1684.880000   26688.887000
 1687.190000   26715.153700
 1689.490000   26717.887000
 1691.790000   26857.187000
 1694.100000   26666.887000
 1696.400000   26813.187000
 1698.700000   26849.420400
 1701.000000   26746.953700
 1703.300000   26702.387000
 1705.600000   26678.520400
 1707.890000   26668.487000
 1710.190000   26674.753700
 1712.480000   26753.153700
 1714.780000   26693.453700
 1717.070000   26727.953700
 1719.370000   26686.820400
 1721.660000   26723.653700
 1723.950000   26824.220400
 1726.240000   26890.320400
 1728.530000   26865.320400
 1730.820000   26702.953700
 1733.110000   26939.820400
 1735.400000   26858.487000
 1737.680000   26814.320400
 1739.970000   26936.820400
 1742.250000   26813.587000
 1744.540000   26845.620400
 1746.820000   27030.653700
 1749.100000   26948.287000
 1751.380000   27078.720400
 1753.670000   27017.620400
 1755.950000   27080.887000
 1758.220000   27073.920400
 1760.500000   27113.720400
 1762.780000   27155.420400
 1765.060000   27112.787000
 1767.330000   27184.753700
 1769.610000   27138.087000
 1771.880000   27014.987000
 1774.160000   27236.220400
 1776.430000   27074.753700
 1778.700000   27173.153700
 1780.970000   27242.120400
 1783.240000   27002.220400
 1785.510000   27215.220400
 1787.780000   27061.587000
 1790.050000   27134.087000
 1792.310000   27289.853700
 1794.580000   27250.653700
 1796.840000   27161.153700
 1799.110000   27298.453700
 1801.370000   27227.353700
 1803.630000   27206.253700
 1805.900000   27352.153700
 1808.160000   27213.753700
 1810.420000   27376.987000
 1812.680000   27239.687000
 1814.940000   27240.987000
 1817.190000   27154.720400
 1819.450000   27300.853700
 1821.710000   27260.387000
 1823.960000   27007.487000
 1826.220000   27234.387000
 1828.470000   27069.453700
 1830.720000   27019.820400
 1832.970000   27169.253700
 1835.230000   27146.787000
